HCOCHO + HV = HCO. + HCO.
! Absorption cross sections from Volkamer, R., P. Spietz, J. Burrows, and
! U. Platt (2005): "High-resolution absorption cross sections of glyoxal
! in the UV-vis and IR spectral ranges," J. Photochem. Photobiol. A, 172
! 35-46.  Quantum yields at wavelengths below 350 nm based on the data of
! Zhu et al (1996) which are consistent with the data of Langford and
! Moore (1984).  Quantum yields at higher wavelengths assumed to decline
! expodentially with wavelength at a rate that gives a photolysis rate
! relative to NO2 consistent with the data of Klotz et al (2000).
!
0.289 3.800E-20 0.325
0.290 3.734E-20 0.326
0.291 3.643E-20 0.327
0.292 3.654E-20 0.329
0.293 3.681E-20 0.330
0.294 3.729E-20 0.331
0.295 3.809E-20 0.333
0.296 3.824E-20 0.334
0.297 3.922E-20 0.335
0.298 4.073E-20 0.337
0.299 4.123E-20 0.338
0.300 4.045E-20 0.339
0.301 3.905E-20 0.341
0.302 3.779E-20 0.342
0.303 3.567E-20 0.343
0.304 3.350E-20 0.345
0.305 3.242E-20 0.346
0.306 3.223E-20 0.347
0.307 3.200E-20 0.349
0.308 3.146E-20 0.350
0.309 3.123E-20 0.359
0.310 3.100E-20 0.369
0.311 3.222E-20 0.378
0.312 3.343E-20 0.387
0.313 3.390E-20 0.397
0.314 3.233E-20 0.406
0.315 2.805E-20 0.415
0.316 2.646E-20 0.424
0.317 2.460E-20 0.434
0.318 2.214E-20 0.443
0.319 1.927E-20 0.452
0.320 1.854E-20 0.462
0.321 1.885E-20 0.471
0.322 1.766E-20 0.480
0.323 1.723E-20 0.490
0.324 1.677E-20 0.499
0.325 1.603E-20 0.508
0.326 1.606E-20 0.517
0.327 1.695E-20 0.527
0.328 1.937E-20 0.536
0.329 1.857E-20 0.545
0.330 1.689E-20 0.555
0.331 1.128E-20 0.564
0.332 1.048E-20 0.573
0.333 9.660E-21 0.583
0.334 9.190E-21 0.592
0.335 7.370E-21 0.601
0.336 6.300E-21 0.611
0.337 5.890E-21 0.620
0.338 6.470E-21 0.629
0.339 5.850E-21 0.638
0.340 5.530E-21 0.648
0.341 5.630E-21 0.657
0.342 5.100E-21 0.666
0.343 4.990E-21 0.676
0.344 6.490E-21 0.685
0.345 6.240E-21 0.694
0.346 7.330E-21 0.704
0.347 6.310E-21 0.713
0.348 6.040E-21 0.722
0.349 4.150E-21 0.731
0.350 3.910E-21 0.741
0.351 3.950E-21 0.750
0.352 4.230E-21 0.715
0.353 4.150E-21 0.681
0.354 4.030E-21 0.649
0.355 4.220E-21 0.619
0.356 4.430E-21 0.589
0.357 4.310E-21 0.562
0.358 4.710E-21 0.535
0.359 5.030E-21 0.510
0.360 5.460E-21 0.486
0.361 6.270E-21 0.463
0.362 7.060E-21 0.442
0.363 6.390E-21 0.421
0.364 6.800E-21 0.401
0.365 6.650E-21 0.382
0.366 7.430E-21 0.364
0.367 8.600E-21 0.347
0.368 1.012E-20 0.331
0.369 1.063E-20 0.315
0.370 1.139E-20 0.300
0.371 1.185E-20 0.286
0.372 1.141E-20 0.273
0.373 1.212E-20 0.260
0.374 1.352E-20 0.248
0.375 1.332E-20 0.236
0.376 1.377E-20 0.225
0.377 1.467E-20 0.214
0.378 1.605E-20 0.204
0.379 1.534E-20 0.195
0.380 1.934E-20 0.186
0.381 2.455E-20 0.177
0.382 2.019E-20 0.169
0.383 2.069E-20 0.161
0.384 1.939E-20 0.153
0.385 1.893E-20 0.146
0.386 1.835E-20 0.139
0.387 2.287E-20 0.132
0.388 3.000E-20 0.126
0.389 3.206E-20 0.120
0.390 3.483E-20 0.115
0.391 3.922E-20 0.109
0.392 3.801E-20 0.104
0.393 2.852E-20 0.099
0.394 3.147E-20 0.095
0.395 3.855E-20 0.090
0.396 3.679E-20 0.086
0.397 3.361E-20 0.082
0.398 4.323E-20 0.078
0.399 4.345E-20 0.074
0.400 3.873E-20 0.071
0.401 4.455E-20 0.067
0.402 5.843E-20 0.064
0.403 7.159E-20 0.061
0.404 6.237E-20 0.058
0.405 4.491E-20 0.056
0.406 4.482E-20 0.053
0.407 4.066E-20 0.051
0.408 3.444E-20 0.048
0.409 4.008E-20 0.046
0.410 5.661E-20 0.044
0.411 7.221E-20 0.042
0.412 7.406E-20 0.040
0.413 1.075E-19 0.038
0.414 1.012E-19 0.036
0.415 1.019E-19 0.034
0.416 6.073E-20 0.033
0.417 6.829E-20 0.031
0.418 7.873E-20 0.030
0.419 9.134E-20 0.028
0.420 5.602E-20 0.027
0.421 7.188E-20 0.026
0.422 6.990E-20 0.025
0.423 1.305E-19 0.023
0.424 8.239E-20 0.022
0.425 1.045E-19 0.021
0.426 1.641E-19 0.020
0.427 1.610E-19 0.019
0.428 2.142E-19 0.018
0.429 6.499E-20 0.018
0.430 7.027E-20 0.017
0.431 6.518E-20 0.016
0.432 6.082E-20 0.015
0.433 5.657E-20 0.014
0.434 6.809E-20 0.014
0.435 7.660E-20 0.013
0.436 1.319E-19 0.013
0.437 9.185E-20 0.012
0.438 1.382E-19 0.011
0.439 1.214E-19 0.011
0.440 2.594E-19 0.010
0.441 1.312E-19 0.010
0.442 9.013E-20 0.009
0.443 1.112E-19 0.009
0.444 1.346E-19 0.009
0.445 1.511E-19 0.008
0.446 7.818E-20 0.008
0.447 3.730E-20 0.007
0.448 4.144E-20 0.007
0.449 5.527E-20 0.007
0.450 8.682E-20 0.006
0.451 1.382E-19 0.006
0.452 1.595E-19 0.006
0.453 3.037E-19 0.006
0.454 2.690E-19 0.005
0.455 5.199E-19 0.005
0.456 1.567E-19 0.005
0.457 2.661E-20 0.005
0.458 2.201E-20 0.004
0.459 9.020E-21 0.004
0.460 1.202E-20 0.004
0.461 8.830E-21 0.004
0.462 5.880E-21 0.004
0.463 3.220E-21 0.000
