HCOCHO + HV = HCHO + H2
! Absorption cross sections from Volkamer, R., P. Spietz, J. Burrows,
! and U. Platt (2005): "High-resolution absorption cross sections of
! glyoxal in the UV-vis and IR spectral ranges," J. Photochem. Photobiol.
! A, 172 35-46.  Quantum yields at wavelengths below 350 nm derived from
! those used for the radical forming process assuming total quantum
! yields of 1.  Quantum yields at higher wavelengths assumed to decline
! expodentially at a rate that gives a 13% formaldehyde yield telative to
! photodecomposition under the conditions of Plum et al (1983).
!
0.289 3.800E-20 0.675
0.290 3.734E-20 0.674
0.291 3.643E-20 0.673
0.292 3.654E-20 0.671
0.293 3.681E-20 0.670
0.294 3.729E-20 0.669
0.295 3.809E-20 0.667
0.296 3.824E-20 0.666
0.297 3.922E-20 0.665
0.298 4.073E-20 0.663
0.299 4.123E-20 0.662
0.300 4.045E-20 0.661
0.301 3.905E-20 0.659
0.302 3.779E-20 0.658
0.303 3.567E-20 0.657
0.304 3.350E-20 0.655
0.305 3.242E-20 0.654
0.306 3.223E-20 0.653
0.307 3.200E-20 0.651
0.308 3.146E-20 0.650
0.309 3.123E-20 0.641
0.310 3.100E-20 0.631
0.311 3.222E-20 0.622
0.312 3.343E-20 0.613
0.313 3.390E-20 0.604
0.314 3.233E-20 0.594
0.315 2.805E-20 0.585
0.316 2.646E-20 0.576
0.317 2.460E-20 0.566
0.318 2.214E-20 0.557
0.319 1.927E-20 0.548
0.320 1.854E-20 0.538
0.321 1.885E-20 0.529
0.322 1.766E-20 0.520
0.323 1.723E-20 0.511
0.324 1.677E-20 0.501
0.325 1.603E-20 0.492
0.326 1.606E-20 0.483
0.327 1.695E-20 0.473
0.328 1.937E-20 0.464
0.329 1.857E-20 0.455
0.330 1.689E-20 0.445
0.331 1.128E-20 0.436
0.332 1.048E-20 0.427
0.333 9.660E-21 0.417
0.334 9.190E-21 0.408
0.335 7.370E-21 0.399
0.336 6.300E-21 0.390
0.337 5.890E-21 0.380
0.338 6.470E-21 0.371
0.339 5.850E-21 0.362
0.340 5.530E-21 0.352
0.341 5.630E-21 0.343
0.342 5.100E-21 0.334
0.343 4.990E-21 0.324
0.344 6.490E-21 0.315
0.345 6.240E-21 0.306
0.346 7.330E-21 0.297
0.347 6.310E-21 0.287
0.348 6.040E-21 0.278
0.349 4.150E-21 0.269
0.350 3.910E-21 0.259
0.351 3.950E-21 0.250
0.352 4.230E-21 0.232
0.353 4.150E-21 0.215
0.354 4.030E-21 0.200
0.355 4.220E-21 0.186
0.356 4.430E-21 0.172
0.357 4.310E-21 0.160
0.358 4.710E-21 0.148
0.359 5.030E-21 0.138
0.360 5.460E-21 0.128
0.361 6.270E-21 0.119
0.362 7.060E-21 0.110
0.363 6.390E-21 0.102
0.364 6.800E-21 0.095
0.365 6.650E-21 0.088
0.366 7.430E-21 0.082
0.367 8.600E-21 0.076
0.368 1.012E-20 0.070
0.369 1.063E-20 0.065
0.370 1.139E-20 0.061
0.371 1.185E-20 0.056
0.372 1.141E-20 0.052
0.373 1.212E-20 0.049
0.374 1.352E-20 0.045
0.375 1.332E-20 0.042
0.376 1.377E-20 0.039
0.377 1.467E-20 0.036
0.378 1.605E-20 0.033
0.379 1.534E-20 0.031
0.380 1.934E-20 0.029
0.381 2.455E-20 0.027
0.382 2.019E-20 0.025
0.383 2.069E-20 0.023
0.384 1.939E-20 0.021
0.385 1.893E-20 0.020
0.386 1.835E-20 0.018
0.387 2.287E-20 0.017
0.388 3.000E-20 0.016
0.389 3.206E-20 0.015
0.390 3.483E-20 0.014
0.391 3.922E-20 0.013
0.392 3.801E-20 0.012
0.393 2.852E-20 0.011
0.394 3.147E-20 0.010
0.395 3.855E-20 0.009
0.396 3.679E-20 0.009
0.397 3.361E-20 0.008
0.398 4.323E-20 0.008
0.399 4.345E-20 0.007
0.400 3.873E-20 0.007
0.401 4.455E-20 0.006
0.402 5.843E-20 0.006
0.403 7.159E-20 0.005
0.404 6.237E-20 0.005
0.405 4.491E-20 0.004
0.406 4.482E-20 0.004
0.407 4.066E-20 0.004
0.408 3.444E-20 0.004
0.409 4.008E-20 0.003
0.410 5.661E-20 0.003
0.411 7.221E-20 0.003
0.412 7.406E-20 0.003
0.413 1.075E-19 0.002
0.414 1.012E-19 0.002
0.415 1.019E-19 0.002
0.416 6.073E-20 0.002
0.417 6.829E-20 0.002
0.418 7.873E-20 0.002
0.419 9.134E-20 0.002
0.420 5.602E-20 0.001
0.421 7.188E-20 0.001
0.422 6.990E-20 0.001
0.423 1.305E-19 0.001
0.424 8.239E-20 0.001
0.425 1.045E-19 0.001
0.426 1.641E-19 0.001
0.427 1.610E-19 0.001
0.428 2.142E-19 0.001
0.429 6.499E-20 0.001
0.430 7.027E-20 0.001
0.431 6.518E-20 0.001
0.432 6.082E-20 0.001
0.433 5.657E-20 0.001
0.434 6.809E-20 0.001
0.435 7.660E-20 0.000
